# measurements
#
# W. S. M. Werner, K. Glantschnig, C. Ambrosch-Draxl. Optical constants and
# inelastic electron-scattering data for 17 elemental metals, J. Phys Chem Ref.
# Data 38, 1013-1092 (2009)
#
# E (eV)      lambda (m)    eps1           eps2
5.000000e-01, 2.479684e-06, -4.048010e+02, 1.273570e+02
7.500000e-01, 1.653123e-06, -1.844110e+02, 4.013600e+01
1.000000e+00, 1.239842e-06, -1.019060e+02, 1.781900e+01
1.250000e+00, 9.918736e-07, -6.266500e+01, 9.848000e+00
1.500000e+00, 8.265613e-07, -4.102000e+01, 6.436000e+00
1.750000e+00, 7.084811e-07, -2.781000e+01, 4.844000e+00
2.000000e+00, 6.199210e-07, -1.912500e+01, 4.117000e+00
2.250000e+00, 5.510409e-07, -1.306900e+01, 3.878000e+00
2.500000e+00, 4.959368e-07, -8.644000e+00, 3.982000e+00
2.750000e+00, 4.508516e-07, -5.295000e+00, 4.395000e+00
3.000000e+00, 4.132807e-07, -2.745000e+00, 5.158000e+00
3.250000e+00, 3.814898e-07, -9.570000e-01, 6.339000e+00
3.500000e+00, 3.542406e-07, -1.640000e-01, 7.883000e+00
3.750000e+00, 3.306245e-07, -6.930000e-01, 9.258000e+00
4.000000e+00, 3.099605e-07, -2.154000e+00, 9.472000e+00
4.250000e+00, 2.917275e-07, -3.269000e+00, 8.378000e+00
4.500000e+00, 2.755204e-07, -3.440000e+00, 6.919000e+00
4.750000e+00, 2.610194e-07, -2.997000e+00, 5.754000e+00
5.000000e+00, 2.479684e-07, -2.340000e+00, 4.989000e+00
5.500000e+00, 2.254258e-07, -1.087000e+00, 4.311000e+00
6.000000e+00, 2.066403e-07, -2.330000e-01, 4.272000e+00
6.500000e+00, 1.907449e-07, 1.180000e-01, 4.495000e+00
7.000000e+00, 1.771203e-07, 1.000000e-03, 4.630000e+00
7.500000e+00, 1.653123e-07, -2.970000e-01, 4.429000e+00
8.000000e+00, 1.549802e-07, -4.470000e-01, 3.991000e+00
8.500000e+00, 1.458638e-07, -4.000000e-01, 3.552000e+00
9.000000e+00, 1.377602e-07, -2.570000e-01, 3.219000e+00
9.500000e+00, 1.305097e-07, -1.000000e-01, 2.988000e+00
1.000000e+01, 1.239842e-07, 3.300000e-02, 2.828000e+00
1.050000e+01, 1.180802e-07, 1.320000e-01, 2.711000e+00
1.100000e+01, 1.127129e-07, 1.980000e-01, 2.615000e+00
1.150000e+01, 1.078123e-07, 2.380000e-01, 2.526000e+00
1.200000e+01, 1.033202e-07, 2.600000e-01, 2.437000e+00
1.250000e+01, 9.918736e-08, 2.730000e-01, 2.344000e+00
1.300000e+01, 9.537246e-08, 2.840000e-01, 2.246000e+00
1.350000e+01, 9.184015e-08, 2.970000e-01, 2.145000e+00
1.400000e+01, 8.856014e-08, 3.180000e-01, 2.045000e+00
1.450000e+01, 8.550634e-08, 3.470000e-01, 1.947000e+00
1.500000e+01, 8.265613e-08, 3.850000e-01, 1.856000e+00
1.550000e+01, 7.998980e-08, 4.350000e-01, 1.774000e+00
1.600000e+01, 7.749012e-08, 4.940000e-01, 1.705000e+00
1.650000e+01, 7.514194e-08, 5.630000e-01, 1.654000e+00
1.700000e+01, 7.293188e-08, 6.420000e-01, 1.626000e+00
1.750000e+01, 7.084811e-08, 7.260000e-01, 1.633000e+00
1.800000e+01, 6.888011e-08, 8.060000e-01, 1.687000e+00
1.850000e+01, 6.701849e-08, 8.540000e-01, 1.807000e+00
1.900000e+01, 6.525484e-08, 8.080000e-01, 1.994000e+00
1.950000e+01, 6.358164e-08, 5.880000e-01, 2.164000e+00
2.000000e+01, 6.199210e-08, 2.400000e-01, 2.144000e+00
2.050000e+01, 6.048010e-08, -2.000000e-02, 1.904000e+00
2.100000e+01, 5.904009e-08, -9.800000e-02, 1.614000e+00
2.150000e+01, 5.766707e-08, -6.400000e-02, 1.381000e+00
2.200000e+01, 5.635645e-08, 1.200000e-02, 1.214000e+00
2.250000e+01, 5.510409e-08, 9.700000e-02, 1.097000e+00
2.300000e+01, 5.390617e-08, 1.790000e-01, 1.013000e+00
2.350000e+01, 5.275923e-08, 2.560000e-01, 9.510000e-01
2.400000e+01, 5.166008e-08, 3.270000e-01, 9.060000e-01
2.450000e+01, 5.060579e-08, 3.940000e-01, 8.740000e-01
2.500000e+01, 4.959368e-08, 4.550000e-01, 8.540000e-01
2.550000e+01, 4.862125e-08, 5.140000e-01, 8.440000e-01
2.600000e+01, 4.768623e-08, 5.670000e-01, 8.470000e-01
2.650000e+01, 4.678649e-08, 6.140000e-01, 8.640000e-01
2.700000e+01, 4.592007e-08, 6.500000e-01, 8.970000e-01
2.750000e+01, 4.508516e-08, 6.650000e-01, 9.450000e-01
2.800000e+01, 4.428007e-08, 6.450000e-01, 1.001000e+00
2.850000e+01, 4.350323e-08, 5.830000e-01, 1.039000e+00
2.900000e+01, 4.275317e-08, 4.970000e-01, 1.032000e+00
2.950000e+01, 4.202854e-08, 4.260000e-01, 9.760000e-01
3.000000e+01, 4.132807e-08, 3.900000e-01, 8.960000e-01
3.050000e+01, 4.065056e-08, 3.890000e-01, 8.180000e-01
3.100000e+01, 3.999490e-08, 4.070000e-01, 7.550000e-01
3.150000e+01, 3.936006e-08, 4.340000e-01, 7.060000e-01
3.200000e+01, 3.874506e-08, 4.630000e-01, 6.700000e-01
3.250000e+01, 3.814898e-08, 4.920000e-01, 6.430000e-01
3.300000e+01, 3.757097e-08, 5.180000e-01, 6.220000e-01
3.350000e+01, 3.701021e-08, 5.420000e-01, 6.070000e-01
3.400000e+01, 3.646594e-08, 5.640000e-01, 5.960000e-01
3.450000e+01, 3.593745e-08, 5.820000e-01, 5.880000e-01
3.500000e+01, 3.542406e-08, 5.970000e-01, 5.820000e-01
3.550000e+01, 3.492513e-08, 6.090000e-01, 5.770000e-01
3.600000e+01, 3.444005e-08, 6.190000e-01, 5.730000e-01
3.650000e+01, 3.396827e-08, 6.270000e-01, 5.690000e-01
3.700000e+01, 3.350924e-08, 6.320000e-01, 5.650000e-01
3.750000e+01, 3.306245e-08, 6.350000e-01, 5.600000e-01
3.800000e+01, 3.262742e-08, 6.370000e-01, 5.540000e-01
3.850000e+01, 3.220369e-08, 6.380000e-01, 5.470000e-01
3.900000e+01, 3.179082e-08, 6.380000e-01, 5.390000e-01
3.950000e+01, 3.138840e-08, 6.380000e-01, 5.300000e-01
4.000000e+01, 3.099605e-08, 6.390000e-01, 5.190000e-01
4.050000e+01, 3.061338e-08, 6.400000e-01, 5.080000e-01
4.100000e+01, 3.024005e-08, 6.430000e-01, 4.970000e-01
4.150000e+01, 2.987571e-08, 6.450000e-01, 4.850000e-01
4.200000e+01, 2.952005e-08, 6.490000e-01, 4.740000e-01
4.250000e+01, 2.917275e-08, 6.530000e-01, 4.630000e-01
4.300000e+01, 2.883353e-08, 6.580000e-01, 4.530000e-01
4.350000e+01, 2.850211e-08, 6.630000e-01, 4.430000e-01
4.400000e+01, 2.817823e-08, 6.680000e-01, 4.330000e-01
4.450000e+01, 2.786162e-08, 6.740000e-01, 4.240000e-01
4.500000e+01, 2.755204e-08, 6.800000e-01, 4.160000e-01
4.550000e+01, 2.724927e-08, 6.860000e-01, 4.080000e-01
4.600000e+01, 2.695309e-08, 6.910000e-01, 4.010000e-01
4.650000e+01, 2.666327e-08, 6.970000e-01, 3.950000e-01
4.700000e+01, 2.637962e-08, 7.020000e-01, 3.890000e-01
4.750000e+01, 2.610194e-08, 7.080000e-01, 3.830000e-01
4.800000e+01, 2.583004e-08, 7.130000e-01, 3.780000e-01
4.850000e+01, 2.556375e-08, 7.180000e-01, 3.730000e-01
4.900000e+01, 2.530290e-08, 7.220000e-01, 3.690000e-01
4.950000e+01, 2.504731e-08, 7.260000e-01, 3.650000e-01
5.000000e+01, 2.479684e-08, 7.300000e-01, 3.610000e-01
5.050000e+01, 2.455133e-08, 7.340000e-01, 3.570000e-01
5.100000e+01, 2.431063e-08, 7.380000e-01, 3.540000e-01
5.150000e+01, 2.407460e-08, 7.410000e-01, 3.510000e-01
5.200000e+01, 2.384311e-08, 7.440000e-01, 3.470000e-01
5.250000e+01, 2.361604e-08, 7.470000e-01, 3.440000e-01
5.300000e+01, 2.339324e-08, 7.490000e-01, 3.420000e-01
5.350000e+01, 2.317462e-08, 7.520000e-01, 3.390000e-01
5.400000e+01, 2.296004e-08, 7.540000e-01, 3.360000e-01
5.450000e+01, 2.274939e-08, 7.560000e-01, 3.330000e-01
5.500000e+01, 2.254258e-08, 7.570000e-01, 3.310000e-01
5.550000e+01, 2.233950e-08, 7.590000e-01, 3.280000e-01
5.600000e+01, 2.214004e-08, 7.600000e-01, 3.250000e-01
5.650000e+01, 2.194411e-08, 7.610000e-01, 3.230000e-01
5.700000e+01, 2.175161e-08, 7.620000e-01, 3.200000e-01
5.750000e+01, 2.156247e-08, 7.630000e-01, 3.180000e-01
5.800000e+01, 2.137659e-08, 7.640000e-01, 3.150000e-01
5.850000e+01, 2.119388e-08, 7.650000e-01, 3.120000e-01
5.900000e+01, 2.101427e-08, 7.650000e-01, 3.100000e-01
5.950000e+01, 2.083768e-08, 7.660000e-01, 3.070000e-01
6.000000e+01, 2.066403e-08, 7.660000e-01, 3.040000e-01
6.050000e+01, 2.049326e-08, 7.660000e-01, 3.010000e-01
6.100000e+01, 2.032528e-08, 7.660000e-01, 2.980000e-01
6.150000e+01, 2.016003e-08, 7.660000e-01, 2.950000e-01
6.200000e+01, 1.999745e-08, 7.660000e-01, 2.920000e-01
6.250000e+01, 1.983747e-08, 7.670000e-01, 2.890000e-01
6.300000e+01, 1.968003e-08, 7.670000e-01, 2.860000e-01
6.350000e+01, 1.952507e-08, 7.670000e-01, 2.820000e-01
6.400000e+01, 1.937253e-08, 7.670000e-01, 2.790000e-01
6.450000e+01, 1.922236e-08, 7.670000e-01, 2.760000e-01
6.500000e+01, 1.907449e-08, 7.670000e-01, 2.730000e-01
6.550000e+01, 1.892889e-08, 7.670000e-01, 2.690000e-01
6.600000e+01, 1.878548e-08, 7.670000e-01, 2.660000e-01
6.650000e+01, 1.864424e-08, 7.670000e-01, 2.620000e-01
6.700000e+01, 1.850510e-08, 7.670000e-01, 2.590000e-01
6.750000e+01, 1.836803e-08, 7.670000e-01, 2.550000e-01
6.800000e+01, 1.823297e-08, 7.670000e-01, 2.520000e-01
6.850000e+01, 1.809988e-08, 7.670000e-01, 2.480000e-01
6.900000e+01, 1.796872e-08, 7.670000e-01, 2.440000e-01
6.950000e+01, 1.783945e-08, 7.680000e-01, 2.410000e-01
7.000000e+01, 1.771203e-08, 7.680000e-01, 2.370000e-01
7.050000e+01, 1.758641e-08, 7.680000e-01, 2.340000e-01
